exposure,2000.0ms
wavelength
340,75
341,119
342,0
343,139
344,107
345,39
346,196
347,241
348,251
349,256
350,17
351,8
352,0
353,89
354,74
355,154
356,257
357,133
358,132
359,73
360,155
361,103
362,63
363,71
364,150
365,120
366,119
367,92
368,66
369,42
370,194
371,63
372,68
373,138
374,89
375,38
376,85
377,159
378,73
379,11
380,36
381,78
382,69
383,80
384,94
385,134
386,16
387,96
388,101
389,69
390,14
391,38
392,89
393,85
394,93
395,78
396,23
397,50
398,28
399,14
400,0
401,69
402,77
403,63
404,36
405,56
406,11
407,0
408,27
409,59
410,85
411,0
412,28
413,61
414,61
415,39
416,79
417,46
418,38
419,32
420,62
421,35
422,61
423,86
424,77
425,87
426,86
427,77
428,32
429,68
430,59
431,108
432,75
433,55
434,40
435,34
436,0
437,55
438,31
439,48
440,64
441,60
442,54
443,80
444,54
445,93
446,58
447,63
448,74
449,100
450,85
451,87
452,102
453,111
454,126
455,85
456,20
457,53
458,117
459,102
460,48
461,47
462,86
463,66
464,117
465,71
466,60
467,0
468,42
469,20
470,69
471,39
472,41
473,51
474,30
475,31
476,30
477,22
478,31
479,46
480,105
481,52
482,52
483,82
484,36
485,65
486,44
487,71
488,9
489,0
490,58
491,40
492,74
493,95
494,70
495,24
496,82
497,47
498,98
499,57
500,58
501,74
502,70
503,33
504,80
505,80
506,59
507,32
508,67
509,88
510,96
511,85
512,76
513,115
514,64
515,49
516,48
517,51
518,66
519,77
520,71
521,99
522,55
523,78
524,52
525,34
526,99
527,48
528,47
529,60
530,35
531,51
532,76
533,84
534,77
535,78
536,60
537,45
538,54
539,68
540,79
541,95
542,69
543,42
544,39
545,109
546,86
547,73
548,62
549,61
550,66
551,61
552,43
553,72
554,84
555,69
556,101
557,94
558,100
559,92
560,36
561,83
562,100
563,89
564,33
565,35
566,47
567,65
568,49
569,57
570,80
571,92
572,41
573,48
574,43
575,103
576,54
577,77
578,76
579,85
580,79
581,74
582,84
583,30
584,82
585,137
586,110
587,98
588,107
589,77
590,69
591,102
592,64
593,38
594,54
595,46
596,44
597,70
598,74
599,42
600,86
601,58
602,67
603,68
604,81
605,40
606,66
607,81
608,63
609,94
610,99
611,88
612,91
613,59
614,85
615,86
616,103
617,44
618,116
619,84
620,89
621,75
622,62
623,77
624,78
625,73
626,73
627,50
628,86
629,75
630,67
631,46
632,73
633,56
634,55
635,77
636,88
637,105
638,87
639,78
640,64
641,53
642,66
643,75
644,85
645,89
646,57
647,76
648,27
649,52
650,41
651,79
652,57
653,47
654,69
655,85
656,53
657,78
658,72
659,80
660,45
661,65
662,85
663,70
664,75
665,58
666,76
667,66
668,65
669,72
670,65
671,64
672,69
673,73
674,69
675,63
676,63
677,68
678,29
679,91
680,98
681,65
682,69
683,104
684,67
685,36
686,62
687,69
688,69
689,100
690,63
691,92
692,109
693,122
694,91
695,123
696,113
697,161
698,187
699,211
700,226
701,270
702,306
703,330
704,370
705,420
706,445
707,536
708,532
709,552
710,579
711,600
712,665
713,734
714,766
715,806
716,865
717,850
718,895
719,968
720,998
721,1022
722,1092
723,1128
724,1144
725,1193
726,1223
727,1257
728,1282
729,1297
730,1348
731,1360
732,1350
733,1385
734,1399
735,1433
736,1449
737,1454
738,1467
739,1502
740,1524
741,1512
742,1521
743,1556
744,1526
745,1561
746,1554
747,1593
748,1624
749,1678
750,1662
751,1663
752,1685
753,1688
754,1708
755,1734
756,1732
757,1671
758,1713
759,1706
760,1748
761,1762
762,1817
763,1792
764,1819
765,1817
766,1854
767,1839
768,1864
769,1878
770,1869
771,1886
772,1955
773,1954
774,1900
775,1893
776,1922
777,1911
778,1962
779,1894
780,1938
781,1958
782,1900
783,1938
784,1926
785,1925
786,1922
787,1874
788,1857
789,1876
790,1868
791,1928
792,1961
793,1975
794,1949
795,1950
796,1986
797,1906
798,1941
799,1970
800,1973
801,1996
802,1943
803,1979
804,2066
805,2081
806,2005
807,2022
808,2011
809,2024
810,2046
811,2004
812,1983
813,1989
814,2013
815,1912
816,1934
817,1906
818,1920
819,1862
820,1897
821,1902
822,1896
823,1798
824,1819
825,1806
826,1699
827,1683
828,1762
829,1736
830,1713
831,1709
832,1649
833,1637
834,1647
835,1639
836,1614
837,1619
838,1568
839,1594
840,1554
841,1565
842,1548
843,1545
844,1459
845,1452
846,1519
847,1547
848,1452
849,1465
850,1447
851,1406
852,1447
853,1473
854,1435
855,1412
856,1392
857,1360
858,1319
859,1289
860,1310
861,1293
862,1259
863,1205
864,1239
865,1192
866,1187
867,1171
868,1104
869,1107
870,1083
871,1031
872,945
873,984
874,956
875,995
876,972
877,946
878,876
879,911
880,866
881,826
882,860
883,836
884,838
885,774
886,769
887,747
888,722
889,777
890,693
891,713
892,698
893,695
894,637
895,571
896,661
897,624
898,656
899,645
900,571
901,610
902,598
903,569
904,526
905,585
906,547
907,493
908,598
909,482
910,584
911,541
912,535
913,570
914,582
915,506
916,546
917,491
918,649
919,538
920,495
921,620
922,595
923,554
924,526
925,612
926,617
927,566
928,614
929,563
930,550
931,590
932,538
933,621
934,654
935,645
936,658
937,691
938,662
939,591
940,496
941,542
942,530
943,526
944,546
945,552
946,440
947,535
948,537
949,504
950,490
951,447
952,467
953,469
954,466
955,482
956,488
957,410
958,353
959,529
960,419
961,468
962,482
963,505
964,489
965,403
966,274
967,290
968,357
969,374
970,361
971,418
972,455
973,512
974,372
975,345
976,373
977,328
978,422
979,432
980,405
981,451
982,517
983,495
984,407
985,457
986,425
987,372
988,453
989,406
990,587
991,539
992,488
993,557
994,679
995,494
996,413
997,460
998,590
999,483
1000,586
